Energy_(eV)	Live_Counts
9550.0	15.555555550000001
9550.25	14.31995148
9550.5	14.56936479
9550.75	13.58024691
9551.0	17.52909661
9551.25	15.80393269
9551.5	17.284926329999998
9551.75	15.555555559999998
9552.0	13.331078139999999
9552.25	17.530864209999997
9552.5	18.01957398
9552.75	19.99744068
9553.0	19.75308643
9553.25	19.752355610000002
9553.5	17.77777778
9553.75	19.01234568
9554.0	17.77503497
9554.25	20.49523013
9554.5	16.54503931
9554.75	21.975308650000002
9555.0	24.68995618
9555.25	20.24843812
9555.5	19.99798862
9555.75	19.01399218
9556.0	20.74257019
9556.25	25.92592593
9556.5	22.96296297
9556.75	26.91358025
9557.0	28.89157206
9557.25	25.68053689
9557.5	23.949460390000002
9557.75	29.62761826
9558.0	32.34933791
9558.25	29.38271608
9558.5	35.0588638
9558.75	32.842555250000004
9559.0	30.11931207
9559.25	37.2872436
9559.5	37.7750349
9559.75	30.864564589999997
9560.0	34.07596451
9560.25	40.243073599999995
9560.5	45.928975
9560.75	43.2087198
9561.0	47.1640917
9561.25	43.7037037
9561.5	43.452950200000004
9561.75	54.81481480000001
9562.0	53.8271605
9562.25	63.2090259
9562.5	60.998509
9562.75	67.6531654
9563.0	68.8928526
9563.25	70.602431
9563.5	80.23625439999999
9563.75	80.2440513
9564.0	89.6296297
9564.25	90.3732393
9564.5	93.347725
9564.75	103.93342910000001
9565.0	114.5679013
9565.25	103.45679009999999
9565.5	116.0457291
9565.75	114.0740741
9566.0	125.4438682
9566.25	137.2884675
9566.5	155.2823175
9566.75	162.5053642
9567.0	151.8384426
9567.25	172.3574484
9567.5	187.6668915
9567.75	189.38271609999998
9568.0	212.09773719999998
9568.25	222.6971545
9568.5	261.72839500000003
9568.75	286.4198263
9569.0	321.4814815
9569.25	352.6577363
9569.5	388.16781399999996
9569.75	423.703703
9570.0	456.82234199999994
9570.25	504.53664799999996
9570.5	543.04919
9570.75	591.2023399999999
9571.0	646.623695
9571.25	675.110148
9571.5	664.747217
9571.75	728.0646879999999
9572.0	736.725117
9572.25	778.326061
9572.5	806.8830029999999
9572.75	835.440178
9573.0	852.006257
9573.25	914.316454
9573.5	915.2891070000001
9573.75	944.860459
9574.0	923.113972
9574.25	941.6468629999999
9574.5	889.7883029999999
9574.75	851.1871550000001
9575.0	804.3431899999999
9575.25	753.83018
9575.5	671.464864
9575.75	593.086079
9576.0	535.0266819999999
9576.25	486.45475600000003
9576.5	443.94648900000004
9576.75	418.271605
9577.0	376.54321
9577.25	357.807049
9577.5	321.9952032
9577.75	302.4213503
9578.0	298.797152
9578.25	275.5555558
9578.5	265.2132459
9578.75	250.3703704
9579.0	236.06487199999998
9579.25	207.91885820000002
9579.5	209.1358024
9579.75	189.36589349999997
9580.0	182.9771717
9580.25	164.20125579999998
9580.5	152.3328793
9580.75	148.1613812
9581.0	126.16375769999999
9581.25	126.64600430000002
9581.5	105.92592590000001
9581.75	114.33124240000001
9582.0	96.0403619
9582.25	95.07014380000001
9582.5	93.56488720000002
9582.75	91.60493830000001
9583.0	80.9876544
9583.25	85.67901239999999
9583.5	64.9378475
9583.75	74.074074
9584.0	71.35308760000001
9584.25	61.726690500000004
9584.5	52.8293907
9584.75	54.074074100000004
9585.0	47.404116099999996
9585.25	52.8343254
9585.5	48.152599800000004
9585.75	48.391099999999994
9586.0	48.1450397
9586.25	42.9611357
9586.5	35.55671521
9586.75	37.0370371
9587.0	33.33638245
9587.25	31.84923089
9587.5	31.10885597
9587.75	31.111173299999997
9588.0	29.13312064
9588.25	29.63188598
9588.5	23.70163137
9588.75	25.6790124
9589.0	25.68157358
9589.25	23.947996330000002
9589.5	21.727115089999998
9589.75	23.95262967
9590.0	25.18762537
9590.25	21.477824409999997
9590.5	20.4942547
9590.75	15.555678210000002
9591.0	20.986252450000002
9591.25	21.97530865
9591.5	19.015211800000003
9591.75	16.5415648
9592.0	18.76683468
9592.25	16.2975769
9592.5	16.53912614
9592.75	12.836824969999999
9593.0	15.80246913
9593.25	17.03441613
9593.5	11.111111099999999
9593.75	15.06142421
9594.0	16.29873594
9594.25	9.8765432
9594.5	10.86511224
9594.75	12.59180023
9595.0	12.59161736
9595.25	13.08538358
9595.5	14.56790124
9595.75	12.0977902
9596.0	13.087700349999999
9596.25	10.370248799999999
9596.5	12.8353625
9596.75	12.3456185
9597.0	12.343484759999999
9597.25	10.36939514
9597.5	10.37098018
9597.75	8.14814814
9598.0	8.88827937
9598.25	10.12266442
9598.5	10.865112239999998
9598.75	9.135802459999999
9599.0	6.91297073
9599.25	8.39640331
9599.5	8.88937673
9599.75	11.60615789
9600.0	8.6419753
9600.25	7.653529130000001
9600.5	11.85069377
9600.75	7.40673694
9601.0	7.9005640999999995
9601.25	9.38271604
9601.5	6.17326637
9601.75	7.65505276
9602.0	7.89855307
9602.25	5.92531641
9602.5	7.16092087
9602.75	5.43173305
9603.0	5.679805249999999
9603.25	8.6419753
9603.5	8.88742641
9603.75	5.1851851799999995
9604.0	5.4325866099999995
9604.25	9.8764827
9604.5	7.16049382
9604.75	5.678951506000001
9605.0	7.653711469999999
9605.25	5.43209876
9605.5	7.65352862
9605.75	6.66544794
9606.0	5.67901234
9606.25	7.65480901
9606.5	6.172169255999999
9606.75	4.691358021
9607.0	6.171011355999999
9607.25	6.42048486
9607.5	6.9138241659999995
9607.75	7.901234559999999
9608.0	5.92531641
9608.25	5.431611150999999
9608.5	4.444627385
9608.75	6.666666660000001
9609.0	6.17247379
9609.25	5.92653574
9609.5	5.92513356
9609.75	6.41926547
9610.0	6.173083609999999
9610.25	7.15933575
9610.5	6.172839499999999
9610.75	7.15836095
9611.0	4.444261587
9611.25	4.691358021
9611.5	5.67998804
9611.75	3.7037037
9612.0	5.186038926
9612.25	5.92592592
9612.5	4.1971042
9612.75	5.92592592
9613.0	3.7040695909999997
9613.25	5.4329525
9613.5	5.432525688
9613.75	6.419204519999999
9614.0	4.691175167
9614.25	7.4074074
9614.5	6.1728395009999995
9614.75	6.914373
9615.0	4.444383606
9615.25	6.41920468
9615.5	5.679012341
9615.75	4.444139679999999
9616.0	4.443834927
9616.25	4.691358021
9616.5	4.93875945
9616.75	4.6916019460000005
9617.0	6.41908262
9617.25	4.938820431
9617.5	4.197896751
9617.75	4.4440177809999994
9618.0	4.44474935
9618.25	5.43209876
9618.5	4.937723041
9618.75	4.444444441
9619.0	4.444261587
9619.25	6.42017995
9619.5	4.9382716
9619.75	4.4449324400000005
9620.0	5.432098760000001
9620.25	5.431794
9620.5	5.4314283
9620.75	3.703459896
9621.0	4.9372963809999995
9621.25	5.1851851799999995
9621.5	4.19753101
9621.75	6.419753350000001
9622.0	3.9504344270000002
9622.25	4.691662931
9622.5	3.7037648599999997
9622.75	3.7033989409999997
9623.0	2.716293308
9623.25	4.93741828
9623.5	4.691358021
9623.75	4.444871311
9624.0	3.7029722869999997
9624.25	4.938271601
9624.5	4.69166293
9624.75	6.66538684
9625.0	5.678646629999999
9625.25	3.702850501
9625.5	3.7037037
9625.75	2.469379728
9626.0	5.18469757
9626.25	5.18481947
9626.5	2.469623652
9626.75	5.4316721
9627.0	3.7037037
9627.25	4.9382716
9627.5	3.7032771559999995
9627.75	3.704069591
9628.0	3.2092670209999996
9628.25	4.19716515
9628.5	5.92519451
9628.75	4.19844574
9629.0	4.9382716
9629.25	5.67828093
9629.5	4.444444441
9629.75	4.1977139260000005
9630.0	4.36949818
9630.25	4.84381914
9630.5	4.194717280000001
9630.75	4.46930165
9631.0	5.093677850000001
9631.25	4.11985954
9631.5	5.14352565
9631.75	4.61918794
9632.0	4.29459368
9632.25	4.3943971500000005
9632.5	4.86883406
9632.75	4.66908687
9633.0	4.26963237
9633.25	5.36828964
9633.5	4.69405753
9633.75	4.2945569
9634.0	4.46937583
9634.25	4.91876353
9634.5	3.9450362500000002
9634.75	4.444380237
9635.0	4.61918295
9635.25	4.5941805
9635.5	4.39436036
9635.75	5.14356369
9636.0	5.4680744
9636.25	4.39447196
9636.5	5.11864415
9636.75	4.019916429999999
9637.0	4.41939835
9637.25	4.44433348
9637.5	4.669046959999999
9637.75	4.194679880000001
9638.0	4.9188059299999995
9638.25	4.0948103300000005
9638.5	5.39312377
9638.75	3.87016229
9639.0	4.39450686
9639.25	4.66905009
9639.5	4.8688334300000005
9639.75	4.49426794
9640.0	3.8451249400000003
9640.25	4.76900504
9640.5	4.06984964
9640.75	4.6191443
9641.0	4.69406064
9641.25	4.24463304
9641.5	4.3695013000000005
9641.75	4.4694581200000005
9642.0	4.094805340000001
9642.25	4.1696836500000005
9642.5	4.094857088
9642.75	4.69409119
9643.0	4.29459867
9643.25	4.694043799999999
9643.5	4.56920236
9643.75	4.96870922
9644.0	4.36947574
9644.25	4.74399199
9644.5	4.344460809999999
9644.75	4.7689589
9645.0	4.31956808
9645.25	4.16971919
9645.5	4.44433348
9645.75	4.76893647
9646.0	5.168454540000001
9646.25	4.61918794
9646.5	4.96874413
9646.75	4.99366304
9647.0	4.818937
9647.25	4.7690387
9647.5	4.61914804
9647.75	4.6939796000000005
9648.0	4.91881216
9648.25	5.19350811
9648.5	5.59286908
9648.75	5.19346822
9649.0	5.617977530000001
9649.25	5.542975149999999
9649.5	6.31694029
9649.75	6.24204139
9650.0	6.94109829
9650.25	7.06605072
9650.5	6.84127737
9650.75	7.4155451800000005
9651.0	7.715365159999999
9651.25	8.539186189999999
9651.5	9.438114969999999
9651.75	9.0635557
9652.0	9.46286868
9652.25	11.68531159
9652.5	10.961127560000001
9652.75	10.86132784
9653.0	12.484069080000001
9653.25	12.65874899
9653.5	12.808900229999999
9653.75	13.607765579999999
9654.0	13.88253821
9654.25	14.93133583
9654.5	14.506888250000001
9654.75	14.50661082
9655.0	13.932341139999998
9655.25	15.43060063
9655.5	13.208033669999999
9655.75	13.25809592
9656.0	11.53549574
9656.25	12.40906983
9656.5	12.484191269999998
9656.75	11.01104956
9657.0	10.66148276
9657.25	10.13714193
9657.5	9.412998420000001
9657.75	9.66284965
9658.0	8.31453443
9658.25	9.03848343
9658.5	8.21452648
9658.75	8.4892586
9659.0	7.64033286
9659.25	6.7913416699999996
9659.5	6.46675488
9659.75	6.59159883
9660.0	5.84262806
9660.25	6.067311630000001
9660.5	5.19338467
9660.75	4.8938396299999996
9661.0	4.74395146
9661.25	5.34327658
9661.5	5.69278665
9661.75	5.068628009999999
9662.0	6.0424469499999995
9662.25	5.56794394
9662.5	5.4681648
9662.75	5.46798152
9663.0	5.31821926
9663.25	5.44306011
9663.5	5.1434421
9663.75	5.41817673
9664.0	4.2695563100000005
9664.25	5.0186867
9664.5	5.41809193
9664.75	5.3682004899999995
9665.0	5.8675606799999995
9665.25	5.14353001
9665.5	4.7690013
9665.75	5.31817189
9666.0	4.61914368
9666.25	5.16844518
9666.5	4.69405689
9666.75	4.79400749
9667.0	4.31956746
9667.25	4.893845860000001
9667.5	3.9449701600000004
9667.75	3.89510178
9668.0	3.5704769699999996
9668.25	2.996153061
9668.5	3.62044449
9668.75	3.69535209
9669.0	3.5704801039999996
9669.25	2.946296527
9669.5	3.4706005820000003
9669.75	2.921275369
9670.0	3.495573734
9670.25	3.021148035
9670.5	3.071135492
9670.75	2.8714069980000003
9671.0	3.0212078890000003
9671.25	2.546768479
9671.5	2.99620418
9671.75	3.22090022
9672.0	2.646691014
9672.25	2.546772839
9672.5	2.372034955
9672.75	3.021193548
9673.0	2.721551245
9673.25	2.721575559
9673.5	3.4206642400000007
9673.75	3.046138643
9674.0	2.6716429699999997
9674.25	2.596754057
9674.5	2.771466381
9674.75	2.971232896
9675.0	3.370760953
9675.25	2.771515008
9675.5	3.121098626
9675.75	3.24586153
9676.0	2.846441948
9676.25	3.4207209800000005
9676.5	3.121069953
9676.75	3.146016918
9677.0	3.370770932
9677.25	3.170986956
9677.5	2.921299685
9677.75	2.921310289
9678.0	3.046116823
9678.25	3.046146749
9678.5	3.146044968
9678.75	3.7452628700000004
9679.0	3.096052524
9679.25	2.9712341450000004
9679.5	3.02116674
9679.75	3.0711286290000004
9680.0	3.046142388
9680.25	2.9962309869999997
9680.5	3.3457634869999997
9680.75	3.121069954
9681.0	2.771511267
9681.25	2.372023113
9681.5	2.6966111379999997
9681.75	2.371975731
9682.0	2.796485669
9682.25	2.596733483
9682.5	3.3458077590000004
9682.75	2.6965830800000004
9683.0	2.596686105
9683.25	2.846419508
9683.5	2.2222028949999997
9683.75	2.49685521
9684.0	2.496840873
9684.25	2.4219507140000003
9684.5	2.696624222
9684.75	2.846417013
9685.0	2.4968558339999998
9685.25	2.696561883
9685.5	2.921275373
9685.75	2.272096212
9686.0	1.8726473319999999
9686.25	1.89756874
9686.5	2.696629835
9686.75	2.3220581019999997
9687.0	2.5217847250000003
9687.25	2.646626801
9687.5	2.621725341
9687.75	2.696561878
9688.0	2.62163931
9688.25	2.721548131
9688.5	2.79650437
9688.75	2.6466311649999996
9689.0	2.496856458
9689.25	3.2209444840000003
9689.5	2.771491941
9689.75	2.746523776
9690.0	2.471867096
9690.25	2.671603071
9690.5	2.8713926539999997
9690.75	2.8713390390000004
9691.0	2.3969476380000003
9691.25	2.571763448
9691.5	2.272160424
9691.75	2.421947597
9692.0	3.121020701
9692.25	2.7714888230000003
9692.5	3.021146791
9692.75	2.172230407
9693.0	2.52180405
9693.25	2.247151112
9693.5	2.347046217
9693.75	2.247181037
9694.0	2.6716411
9694.25	2.54675289
9694.5	2.72153005
9694.75	2.2471723079999997
9695.0	2.371975731
9695.25	2.946317099
9695.5	2.696583703
9695.75	2.671612421
9696.0	2.396966339
9696.25	2.746526888
9696.5	2.197220391
9696.75	2.5717403819999998
9697.0	2.571721055
9697.25	2.1223439490000002
9697.5	2.5967565529999996
9697.75	2.471885175
9698.0	2.4718483940000002
9698.25	2.122313401
9698.5	2.471910113
9698.75	2.6466473720000003
9699.0	2.222208507
9699.25	2.2970712339999997
9699.5	2.746540609
9699.75	2.247152982
9700.0	2.896357085
