Energy_(eV)	Live_Counts
9550.0	67.40161764999999
9550.25	64.68812828
9550.5	73.82746767
9550.75	63.9534857
9551.0	73.08831182
9551.25	70.37153019
9551.5	73.08434969
9551.75	77.28462309
9552.0	82.45974930999998
9552.25	80.24520856000001
9552.5	82.96028359
9552.75	74.32117135000001
9553.0	79.01161495000001
9553.25	82.71318536
9553.5	80.74135247
9553.75	84.68130106999999
9554.0	84.19436482
9554.25	97.03393258000001
9554.5	93.33315698999999
9554.75	96.05054359
9555.0	98.51138843000003
9555.25	96.29410487
9555.5	96.04487518
9555.75	101.47398630999999
9556.0	101.73022656
9556.25	122.22185895999999
9556.5	117.77857272
9556.75	121.23395971
9557.0	115.06477939999999
9557.25	122.94522624
9557.5	126.92175319
9557.75	137.27267483
9558.0	129.37503718000002
9558.25	147.8938608
9558.5	152.09170170000002
9558.75	138.25746569
9559.0	148.15028592
9559.25	153.82435812999998
9559.5	173.8254558
9559.75	171.85234309999998
9560.0	183.7141335
9560.25	188.38147129999996
9560.5	204.9551025
9560.75	210.60021979999996
9561.0	222.46377879999997
9561.25	237.0430814
9561.5	234.3070298
9561.75	250.3648304
9562.0	282.48091050000005
9562.25	284.9310213
9562.5	300.5004162
9562.75	308.14187660000005
9563.0	340.97430970000005
9563.25	374.8064759
9563.5	391.3723699000001
9563.75	405.66817449999996
9564.0	420.3089317
9564.25	458.0343927
9564.5	480.2849708
9564.75	504.4332956999999
9565.0	531.8508924
9565.25	565.1528880999999
9565.5	580.4551338
9565.75	600.2368018
9566.0	673.0753952
9566.25	692.3339228
9566.5	718.8000217
9566.75	741.9578315000001
9567.0	811.0766364000001
9567.25	896.7778366
9567.5	946.7386027
9567.75	1020.3278552
9568.0	1139.9016609
9568.25	1261.8459004000001
9568.5	1448.2049949999998
9568.75	1525.6732089999998
9569.0	1746.5309209999998
9569.25	1869.958905
9569.5	2086.231992
9569.75	2295.450287
9570.0	2525.4475890000003
9570.25	2684.8377749999995
9570.5	2860.3251720000003
9570.75	2996.8894049999994
9571.0	3107.616635
9571.25	3283.0912120000007
9571.5	3355.1927
9571.75	3481.9613239999994
9572.0	3590.9686070000002
9572.25	3772.2941260000002
9572.5	3974.4087
9572.75	4064.3726260000003
9573.0	4236.498554000001
9573.25	4241.879817999999
9573.5	4312.166241
9573.75	4262.376209999999
9574.0	4066.4308120000005
9574.25	3887.8798670000006
9574.5	3632.126389
9574.75	3337.2601380000006
9575.0	3090.265695
9575.25	2820.541362
9575.5	2584.045063
9575.75	2268.871918
9576.0	2068.5777660000003
9576.25	1879.7195620000002
9576.5	1749.527213
9576.75	1625.5756700000002
9577.0	1518.209663
9577.25	1442.560531
9577.5	1319.8084240000003
9577.75	1288.2560509999998
9578.0	1191.7247808
9578.25	1142.7848476
9578.5	1044.7549208
9578.75	998.0034385000001
9579.0	932.673219
9579.25	839.0831450999999
9579.5	788.3643671
9579.75	743.6839322000001
9580.0	699.0582712
9580.25	647.8774226999999
9580.5	588.3961770999999
9580.75	576.2960022999999
9581.0	523.4547226999999
9581.25	495.5261924
9581.5	477.56019630000003
9581.75	435.32480639999994
9582.0	417.5211197999999
9582.25	404.6535685
9582.5	354.0437305
9582.75	349.3810804
9583.0	333.6070177
9583.25	317.0559445
9583.5	299.7293153
9583.75	282.2106446
9584.0	255.54781970000002
9584.25	244.7103307
9584.5	220.00342
9584.75	233.09099569999998
9585.0	222.44640369999996
9585.25	197.76132259999997
9585.5	186.15760740000002
9585.75	182.46469029999997
9586.0	182.95358219999997
9586.25	164.6864849
9586.5	156.29300944
9586.75	158.0238509
9587.0	139.99293310000002
9587.25	138.51279179
9587.5	130.11443854
9587.75	138.75446089
9588.0	120.49004975
9588.25	119.74583567
9588.5	119.99774754
9588.75	115.05886863000002
9589.0	114.80848008
9589.25	110.85646040000002
9589.5	93.0798988
9589.75	99.75296755999999
9590.0	94.31861148999998
9590.25	97.52751656999999
9590.5	87.40277513000001
9590.75	85.67352906
9591.0	82.72397778
9591.25	86.91693604999999
9591.5	79.74918668
9591.75	78.02060843
9592.0	74.56345419
9592.25	70.11851974
9592.5	66.91223932999999
9592.75	68.38860177000001
9593.0	63.20750013999999
9593.25	62.71440484
9593.5	54.07188056000001
9593.75	61.9772001
9594.0	53.82277258
9594.25	57.281269589999994
9594.5	55.800092469999996
9594.75	51.602744400000006
9595.0	48.64228173
9595.25	46.91614143
9595.5	55.80015469
9595.75	49.875204309999994
9596.0	50.36964008
9596.25	54.814023559999995
9596.5	48.886817269999995
9596.75	46.66569250999999
9597.0	42.96339025000001
9597.25	41.47977567
9597.5	41.23200859
9597.75	43.70407101
9598.0	42.96314695
9598.25	44.44737153
9598.5	43.45691394
9598.75	42.70934551
9599.0	37.775949929999996
9599.25	37.03386808
9599.5	38.51754546
9599.75	40.49084051999999
9600.0	40.73946136000001
9600.25	36.04944466
9600.5	33.57841881
9600.75	28.887243549999997
9601.0	33.33418735
9601.25	34.81451082
9601.5	32.838165739999994
9601.75	32.09730309
9602.0	29.628959322
9602.25	27.899162567
9602.5	33.82289461999999
9602.75	30.615029319999998
9603.0	31.602134489999997
9603.25	25.433135695
9603.5	28.639720399999998
9603.75	24.6909931
9604.0	24.445176847000003
9604.25	33.57805351
9604.5	25.924890339999997
9604.75	23.20865807
9605.0	34.073282264999996
9605.25	32.343607139999996
9605.5	32.09833898
9605.75	24.196373257
9606.0	25.926170676
9606.25	26.66733814
9606.5	27.652431900000003
9606.75	28.88559826
9607.0	27.158178271000004
9607.25	27.405761917000007
9607.5	27.90044251
9607.75	27.652370979999997
9608.0	25.926048590000004
9608.25	25.67700094
9608.5	27.15915388
9608.75	22.221431236
9609.0	26.418290629999998
9609.25	20.738547138
9609.5	30.12309209
9609.75	29.875507711999994
9610.0	25.676208571
9610.25	27.159518951
9610.5	21.726932211
9610.75	29.134157250000005
9611.0	22.960769696
9611.25	22.714891291
9611.5	25.430697201
9611.75	21.482946047
9612.0	22.22240532
9612.25	18.023899458
9612.5	23.207072916999998
9612.75	22.714647845
9613.0	23.949094096
9613.25	23.704131096999998
9613.5	24.443530243
9613.75	21.233592869999995
9614.0	25.680293810000002
9614.25	21.728578767000002
9614.5	18.270386561
9614.75	22.960342281
9615.0	19.504222533
9615.25	23.950435017999997
9615.5	21.975309076000002
9615.75	18.271361812000002
9616.0	19.260357279
9616.25	18.519372957999998
9616.5	19.753208511
9616.75	25.430819382
9617.0	22.468465707
9617.25	25.432464906
9617.5	16.04889549
9617.75	21.974151347
9618.0	19.505685786
9618.25	20.49352272
9618.5	21.482030746
9618.75	23.455632027
9619.0	17.776680728
9619.25	18.517604590999998
9619.5	18.270569167999994
9619.75	21.727664025999996
9620.0	19.012590275
9620.25	17.281513545
9620.5	20.985642907
9620.75	21.728090619999993
9621.0	18.272580873000003
9621.25	21.974760401
9621.5	18.025362602
9621.75	19.751258432999997
9622.0	16.790184637
9622.25	19.751501850999997
9622.5	19.506478027999997
9622.75	18.765371553
9623.0	14.319707898
9623.25	21.480811116
9623.5	17.531596234000002
9623.75	18.515409982
9624.0	17.282366012999997
9624.25	21.234934229
9624.5	15.308276466000002
9624.75	17.03624466
9625.0	20.493706061999998
9625.25	21.234751761
9625.5	18.025057586
9625.75	21.234447009
9626.0	16.049017326999998
9626.25	20.244232348999997
9626.5	19.999207921999997
9626.75	21.975248090999997
9627.0	16.047676059999997
9627.25	19.752538438
9627.5	19.258588968999998
9627.75	20.986009138000004
9628.0	18.271422338
9628.25	20.245877513999996
9628.5	20.492974011
9628.75	18.270203164
9629.0	19.259015734000002
9629.25	19.505868187
9629.5	16.789819499000004
9629.75	19.754427993
9630.0	20.199617540000002
9630.25	19.07596281
9630.5	18.15218931
9630.75	20.62400776
9631.0	20.44898873
9631.25	19.026104391
9631.5	19.325479880000003
9631.75	19.55027937
9632.0	20.49929226
9632.25	20.02461968
9632.5	19.47543908
9632.75	19.125893510000004
9633.0	20.02466891
9633.25	18.951042179999998
9633.5	19.27574616
9633.75	19.275691899999998
9634.0	18.95108519
9634.25	19.37557828
9634.5	19.25061466
9634.75	19.400491600000002
9635.0	19.475278890000002
9635.25	20.174515960000004
9635.5	18.401676440000003
9635.75	19.550479499999998
9636.0	18.8511215
9636.25	20.124519760000002
9636.5	20.723790030000007
9636.75	20.89868005
9637.0	20.32421646
9637.25	20.299390450000004
9637.5	19.350576440000005
9637.75	19.275636429999995
9638.0	19.97475067
9638.25	19.4754017
9638.5	19.15070832
9638.75	19.12588229
9639.0	19.949899709999997
9639.25	19.37551408
9639.5	20.049607180000002
9639.75	17.97719082
9640.0	18.57662316
9640.25	18.65150336
9640.5	18.85127612
9640.75	19.250728090000003
9641.0	19.60029739
9641.25	18.30212922
9641.5	17.9025095
9641.75	18.90105722
9642.0	19.774997850000002
9642.25	19.125652900000002
9642.5	19.999768730000003
9642.75	18.376699549999998
9643.0	19.750118229999998
9643.25	19.200753130000002
9643.5	19.775113190000006
9643.75	20.77369083
9644.0	20.37436414
9644.25	21.52302318
9644.5	20.973530280000002
9644.75	20.973456100000003
9645.0	19.375460470000004
9645.25	20.024774300000004
9645.5	21.67280476
9645.75	19.22577866
9646.0	22.57155336
9646.25	21.24799558
9646.5	21.897450300000003
9646.75	21.548044350000005
9647.0	20.72383491
9647.25	21.697597119999998
9647.5	22.69630815
9647.75	24.71883181
9648.0	24.868531710000003
9648.25	26.71622083
9648.5	25.01842236
9648.75	27.415459160000005
9649.0	28.988396229999996
9649.25	31.08541354
9649.5	31.185758770000003
9649.75	31.659921370000003
9650.0	35.155319920000004
9650.25	35.58006175999999
9650.5	39.62497751
9650.75	41.82221475
9651.0	44.294079360000005
9651.25	47.090238989999996
9651.5	49.81259507
9651.75	52.60817739000001
9652.0	54.1314381
9652.25	56.10442631000001
9652.5	58.52633648
9652.75	62.52069125
9653.0	66.01667269
9653.25	64.59377964000001
9653.5	65.84242732000001
9653.75	64.71882434999999
9654.0	65.24303297
9654.25	61.54730995999999
9654.5	61.69726234000001
9654.75	59.54994461
9655.0	57.6277076
9655.25	56.72776701
9655.5	54.63100218
9655.75	51.16049884
9656.0	51.23534035000001
9656.25	47.1154989
9656.5	45.16813848
9656.75	45.09307561
9657.0	40.59858138
9657.25	38.92585333
9657.5	37.127906610000004
9657.75	35.4303095
9658.0	32.90816445
9658.25	31.111013860000003
9658.5	30.68632687
9658.75	29.33800106
9659.0	27.465167939999997
9659.25	27.715098339999997
9659.5	25.542751959999997
9659.75	27.19086036
9660.0	24.94348173
9660.25	23.869778280000002
9660.5	25.11842158
9660.75	24.469055390000005
9661.0	23.819784599999995
9661.25	23.5703442
9661.5	24.718700890000004
9661.75	22.346862910000002
9662.0	23.370557090000002
9662.25	23.769976689999996
9662.5	23.220685160000002
9662.75	23.49567411
9663.0	23.64499371
9663.25	23.39549845
9663.5	24.69398709
9663.75	24.319099880000003
9664.0	24.54380405
9664.25	24.219526459999997
9664.5	23.79474536
9664.75	22.1468938
9665.0	22.44669198
9665.25	22.44657663
9665.5	21.37297605
9665.75	20.474160729999998
9666.0	19.92479066
9666.25	18.526516640000004
9666.5	18.00231047
9666.75	16.52906901
9667.0	16.30438482
9667.25	16.35442275
9667.5	15.305759832000001
9667.75	13.607854112000002
9668.0	12.858713131000002
9668.25	13.957291863
9668.5	12.559092657
9668.75	12.958518468
9669.0	12.059820365
9669.25	11.8101063
9669.5	12.184524043
9669.75	11.435543277
9670.0	11.685236775000002
9670.25	11.335686206000002
9670.5	11.585329209
9670.75	10.886232412
9671.0	11.585364109
9671.25	11.585398412
9671.5	10.336918433
9671.75	10.686502056
9672.0	11.460554464000001
9672.25	11.160900314000001
9672.5	11.710165041
9672.75	12.634051410999998
9673.0	11.36051535
9673.25	11.88495344
9673.5	11.435499645
9673.75	11.710170663999998
9674.0	12.70897146
9674.25	12.234470337
9674.5	11.959856674000001
9674.75	11.635224402000002
9675.0	12.559151266999999
9675.25	12.534150048999999
9675.5	12.384336690000001
9675.75	12.159579555000002
9676.0	12.95870674
9676.25	13.757629433999998
9676.5	11.98478994
9676.75	12.534147554
9677.0	13.60773316
9677.25	12.384375962000002
9677.5	12.584206696999999
9677.75	12.68390418
9678.0	12.509048473
9678.25	13.133397238999999
9678.5	11.710279128
9678.75	10.961244764
9679.0	13.457959091
9679.25	12.159618834999998
9679.5	11.41051652
9679.75	11.735153151999999
9680.0	10.961111974
9680.25	11.984841675
9680.5	12.134747918000002
9680.75	10.961116336
9681.0	12.284462138999999
9681.25	10.736425914
9681.5	10.836289228
9681.75	11.310696223999999
9682.0	11.111054384000003
9682.25	10.886305352
9682.5	10.811311086
9682.75	10.411819815
9683.0	11.335691189
9683.25	10.786390918
9683.5	10.561616343999997
9683.75	10.286944075
9684.0	9.213304844000001
9684.25	10.287099304
9684.5	10.711400395999998
9684.75	9.962327367
9685.0	10.936108278999999
9685.25	10.861253654999999
9685.5	10.611512765999999
9685.75	10.586656822
9686.0	10.386902764999999
9686.25	10.087268569999999
9686.5	9.912437789999998
9686.75	10.486710591
9687.0	11.610365954999999
9687.25	10.11226417
9687.5	10.661527649
9687.75	10.986128764
9688.0	9.98730863
9688.25	10.237008364
9688.5	10.137229843
9688.75	10.162159972000001
9689.0	10.361899061999999
9689.25	10.137198049
9689.5	11.011089456000002
9689.75	10.836436359999999
9690.0	10.711392908999999
9690.25	11.260871478999999
9690.5	9.687733037
9690.75	11.011121244
9691.0	8.689048803
9691.25	9.837525197000001
9691.5	9.912473330000001
9691.75	11.160823
9692.0	10.162209229
9692.25	10.311866723
9692.5	10.087287269999997
9692.75	9.288296000999999
9693.0	9.937420306
9693.25	10.561733544
9693.5	10.46175738
9693.75	9.388180505000001
9694.0	9.937336759
9694.25	9.487921001
9694.5	9.912543782000002
9694.75	9.912531935
9695.0	9.662828458
9695.25	10.686472133
9695.5	9.637723764
9695.75	8.913687483
9696.0	10.137187445999999
9696.25	10.83628673
9696.5	9.662811631
9696.75	9.487972124
9697.0	10.461729961
9697.25	9.962446445
9697.5	9.86260932
9697.75	10.237081302
9698.0	9.188402138999999
9698.25	10.536612014
9698.5	9.51298019
9698.75	9.962385971999998
9699.0	9.313224886999999
9699.25	9.812553290000002
9699.5	9.787651830999998
9699.75	8.838840341000001
9700.0	8.788906504
