Energy_(eV)	Live_Counts
9550.0	3.45679012
9550.25	6.17283951
9550.5	4.44444444
9550.75	6.41975309
9551.0	4.44334732
9551.25	5.43209877
9551.5	4.44444444
9551.75	5.92592593
9552.0	7.90123457
9552.25	7.65432099
9552.5	5.18646579
9552.75	3.95061728
9553.0	8.89108422
9553.25	7.40740741
9553.5	4.69135802
9553.75	5.43075784
9554.0	7.40923685
9554.25	5.92738948
9554.5	3.95061728
9554.75	6.91187361
9555.0	8.88888889
9555.25	7.6524315
9555.5	7.15872624
9555.75	8.64197531
9556.0	7.65432099
9556.25	8.63984201
9556.5	8.89108422
9556.75	13.5802469
9557.0	7.65432099
9557.25	10.1234568
9557.5	12.5925926
9557.75	9.87654321
9558.0	11.3580247
9558.25	10.8668807
9558.5	10.125957
9558.75	12.5925926
9559.0	10.3703704
9559.25	14.3209877
9559.5	11.8518519
9559.75	13.8237472
9560.0	13.5802469
9560.25	13.5802469
9560.5	23.7037037
9560.75	13.3333333
9561.0	16.0493827
9561.25	19.2592593
9561.5	20.4938272
9561.75	19.7530864
9562.0	17.7777778
9562.25	20.7407407
9562.5	21.7337614
9562.75	21.9753086
9563.0	24.203507
9563.25	30.1308965
9563.5	32.8476167
9563.75	28.1411997
9564.0	33.5885404
9564.25	35.2912142
9564.5	39.9901259
9564.75	45.1851852
9565.0	34.5679012
9565.25	44.4444444
9565.5	38.5185185
9565.75	47.4074074
9566.0	49.1358025
9566.25	51.0984942
9566.5	56.0493827
9566.75	62.962963
9567.0	57.7777778
9567.25	64.1975309
9567.5	67.654321
9567.75	74.3026413
9568.0	81.2345679
9568.25	81.9550728
9568.5	94.5679012
9568.75	104.444444
9569.0	117.777778
9569.25	126.450976
9569.5	129.382716
9569.75	157.56977
9570.0	182.962963
9570.25	174.320988
9570.5	184.243023
9570.75	220.740741
9571.0	229.62963
9571.25	231.111111
9571.5	243.022969
9571.75	260.493827
9572.0	269.382716
9572.25	265.744628
9572.5	279.328229
9572.75	303.112648
9573.0	318.597184
9573.25	326.666667
9573.5	314.737102
9573.75	349.22203
9574.0	319.832057
9574.25	323.78365
9574.5	306.495431
9574.75	295.555556
9575.0	273.647814
9575.25	244.010867
9575.5	225.185185
9575.75	204.197531
9576.0	186.666667
9576.25	166.625525
9576.5	155.802469
9576.75	151.358025
9577.0	141.022475
9577.25	121.728395
9577.5	116.078044
9577.75	106.419753
9578.0	100.518647
9578.25	97.5308642
9578.5	92.8853755
9578.75	84.691358
9579.0	82.242529
9579.25	68.9059027
9579.5	75.0988142
9579.75	61.9600099
9580.0	61.9753086
9580.25	53.0733152
9580.5	54.3209877
9580.75	47.6425574
9581.0	45.1851852
9581.25	45.9259259
9581.5	42.962963
9581.75	37.2931588
9582.0	33.5802469
9582.25	32.3376944
9582.5	31.8518519
9582.75	26.4067127
9583.0	30.3703704
9583.25	28.8817576
9583.5	27.4006418
9583.75	24.9382716
9584.0	22.962963
9584.25	24.1975309
9584.5	15.308642
9584.75	18.5185185
9585.0	16.5432099
9585.25	16.7859788
9585.5	16.5432099
9585.75	14.5714991
9586.0	13.5836009
9586.25	14.3174525
9586.5	8.88669464
9586.75	12.345679
9587.0	12.5925926
9587.25	13.8271605
9587.5	9.87654321
9587.75	9.87654321
9588.0	10.8615157
9588.25	7.40923685
9588.5	7.40375123
9588.75	8.39506173
9589.0	7.65621141
9589.25	8.64197531
9589.5	5.67901235
9589.75	7.65432099
9590.0	7.65621141
9590.25	7.65432099
9590.5	7.15872624
9590.75	9.3803999
9591.0	5.18518519
9591.25	4.68904245
9591.5	6.66666667
9591.75	6.17283951
9592.0	5.92592593
9592.25	6.91187361
9592.5	6.17283951
9592.75	5.92592593
9593.0	4.93705258
9593.25	4.93705258
9593.5	7.15872624
9593.75	4.69135802
9594.0	5.43344036
9594.25	6.41975309
9594.5	3.95159299
9594.75	4.69135802
9595.0	3.95159299
9595.25	2.96296296
9595.5	3.45593681
9595.75	3.70187562
9596.0	5.43344036
9596.25	3.95159299
9596.5	4.19753086
9596.75	2.96296296
9597.0	3.95061728
9597.25	4.69135802
9597.5	5.18518519
9597.75	3.94964206
9598.0	2.96296296
9598.25	2.96296296
9598.5	2.96296296
9598.75	4.44444444
9599.0	3.2106693
9599.25	2.22222222
9599.5	1.97530864
9599.75	2.7173913
9600.0	1.48184737
9600.25	2.71604938
9600.5	1.72882193
9600.75	2.96296296
9601.0	3.45593681
9601.25	3.2106693
9601.5	2.22222222
9601.75	2.22222222
9602.0	1.97579649
9602.25	2.46974562
9602.5	1.97482103
9602.75	1.97530864
9603.0	1.48148148
9603.25	1.2345679
9603.5	3.45593681
9603.75	3.45508391
9604.0	2.22222222
9604.25	1.97530864
9604.5	2.22167366
9604.75	2.4691358
9605.0	1.97530864
9605.25	2.71604938
9605.5	1.2345679
9605.75	2.22222222
9606.0	1.2345679
9606.25	2.4691358
9606.5	2.4691358
9606.75	1.23487281
9607.0	2.4691358
9607.25	0.987898246
9607.5	2.4691358
9607.75	3.45593681
9608.0	2.71604938
9608.25	2.71537892
9608.5	1.2345679
9608.75	1.97530864
9609.0	2.71604938
9609.25	1.97530864
9609.5	1.48148148
9609.75	1.23426314
9610.0	0.740740741
9610.25	1.2345679
9610.5	2.4691358
9610.75	1.72882193
9611.0	2.71537892
9611.25	2.22222222
9611.5	1.72839506
9611.75	1.97433366
9612.0	0.987898246
9612.25	0.740740741
9612.5	0.24691358
9612.75	0.740740741
9613.0	3.20987654
9613.25	1.72839506
9613.5	1.7279684
9613.75	1.72839506
9614.0	2.71604938
9614.25	1.97530864
9614.5	1.97482103
9614.75	1.97433366
9615.0	3.45679012
9615.25	1.72839506
9615.5	1.48148148
9615.75	0.987654321
9616.0	0.49382716
9616.25	2.22222222
9616.5	1.48148148
9616.75	0.987410516
9617.0	1.48148148
9617.25	1.97530864
9617.5	0.740740741
9617.75	2.22167366
9618.0	1.72839506
9618.25	1.97530864
9618.5	1.72882193
9618.75	1.2345679
9619.0	1.72839506
9619.25	1.23487281
9619.5	2.71672018
9619.75	2.22222222
9620.0	0.740740741
9620.25	0.740923685
9620.5	1.97530864
9620.75	1.23426314
9621.0	1.97482103
9621.25	0.740923685
9621.5	0.740923685
9621.75	2.22222222
9622.0	1.72839506
9622.25	1.48111577
9622.5	0.24691358
9622.75	0.49382716
9623.0	1.48111577
9623.25	0.740557887
9623.5	2.71604938
9623.75	0.24691358
9624.0	1.72839506
9624.25	0.740740741
9624.5	2.22222222
9624.75	1.2345679
9625.0	0.740740741
9625.25	2.4691358
9625.5	1.97530864
9625.75	0.987410516
9626.0	0.740740741
9626.25	1.7279684
9626.5	0.740557887
9626.75	0.987654321
9627.0	0.740740741
9627.25	1.97579649
9627.5	1.72839506
9627.75	2.96223155
9628.0	1.48148148
9628.25	1.2345679
9628.5	1.23426314
9628.75	1.48184737
9629.0	0.24691358
9629.25	1.48148148
9629.5	0.987898246
9629.75	1.97530864
9630.0	1.67286709
9630.25	1.14856429
9630.5	1.64794007
9630.75	1.67282533
9631.0	1.54806492
9631.25	1.77278402
9631.5	1.24847062
9631.75	1.92245275
9632.0	1.49808994
9632.25	1.92254875
9632.5	1.57299443
9632.75	1.5980025
9633.0	1.49808994
9633.25	1.49808994
9633.5	1.3982871
9633.75	1.57303371
9634.0	1.62297129
9634.25	1.74781523
9634.5	1.64789893
9634.75	1.17347448
9635.0	1.67286709
9635.25	1.42318544
9635.5	1.54806492
9635.75	1.39825218
9636.0	1.84769039
9636.25	1.59788281
9636.5	1.44818976
9636.75	1.62297129
9637.0	1.72280343
9637.25	1.54802627
9637.5	1.54806492
9637.75	1.5230581
9638.0	2.02237092
9638.25	2.09732591
9638.5	1.49812734
9638.75	1.92259675
9639.0	1.27340824
9639.25	1.62301181
9639.5	1.47315855
9639.75	1.39821727
9640.0	1.62297129
9640.25	1.94756554
9640.5	1.39821727
9640.75	1.74777159
9641.0	1.5230581
9641.25	1.69787765
9641.5	1.62297129
9641.75	1.97253433
9642.0	1.84764425
9642.25	1.69783526
9642.5	1.87261242
9642.75	1.97253433
9643.0	1.5230581
9643.25	1.97253433
9643.5	1.67286709
9643.75	1.67290886
9644.0	2.17217617
9644.25	1.8227216
9644.5	1.92259675
9644.75	1.8227216
9645.0	1.69787765
9645.25	2.07235774
9645.5	2.42203301
9645.75	1.72284644
9646.0	1.64789893
9646.25	1.87265918
9646.5	2.17223041
9646.75	1.8227216
9647.0	1.77273976
9647.25	2.22216674
9647.5	1.69792005
9647.75	2.24719101
9648.0	1.8227216
9648.25	1.8227216
9648.5	1.89758058
9648.75	1.77273976
9649.0	2.32209738
9649.25	1.4481536
9649.5	1.77273976
9649.75	1.79770792
9650.0	2.17223041
9650.25	2.37197573
9650.5	2.14726224
9650.75	2.67166042
9651.0	2.32209738
9651.25	2.74649821
9651.5	2.22222222
9651.75	2.82140271
9652.0	2.79643455
9652.25	2.79650437
9652.5	3.1210207
9652.75	2.92127537
9653.0	2.97121171
9653.25	3.1959252
9653.5	3.29588015
9653.75	2.99625468
9654.0	2.87133904
9654.25	2.92127537
9654.5	3.42063869
9654.75	3.39567052
9655.0	2.87133904
9655.25	3.77038128
9655.5	3.8450975
9655.75	4.11974732
9656.0	3.99490649
9656.25	3.89503383
9656.5	4.46941323
9656.75	4.16978777
9657.0	5.74267809
9657.25	5.66777359
9657.5	5.84269663
9657.75	6.34223077
9658.0	6.39200999
9658.25	5.46802826
9658.5	6.01762841
9658.75	6.19225968
9659.0	4.66904697
9659.25	4.59414247
9659.5	4.36931988
9659.75	3.99490649
9660.0	3.24594257
9660.25	3.24586153
9660.5	2.67159372
9660.75	3.0461162
9661.0	2.64669164
9661.25	2.52178472
9661.5	2.07235774
9661.75	2.4968789
9662.0	2.29701388
9662.25	2.09732591
9662.5	1.87261242
9662.75	1.87261242
9663.0	2.12234707
9663.25	1.92259675
9663.5	2.09732591
9663.75	2.02247191
9664.0	1.92254875
9664.25	1.62293076
9664.5	1.79775281
9664.75	1.79770792
9665.0	1.64794007
9665.25	1.89762797
9665.5	1.67286709
9665.75	1.4481536
9666.0	1.5230581
9666.25	1.49808994
9666.5	1.62293076
9666.75	1.5230581
9667.0	1.32334582
9667.25	1.42322097
9667.5	1.27334465
9667.75	1.3732834
9668.0	1.29834461
9668.25	1.89758058
9668.5	1.32331278
9668.75	1.39825218
9669.0	1.34831461
9669.25	1.24843945
9669.5	1.04866295
9669.75	1.42318544
9670.0	1.29834461
9670.25	1.34828094
9670.5	1.37324911
9670.75	1.32331278
9671.0	0.948813983
9671.25	1.47312177
9671.5	1.44818976
9671.75	1.29834461
9672.0	1.12359551
9672.25	1.04868914
9672.5	1.17350378
9672.75	1.12356745
9673.0	1.02372035
9673.25	1.19850187
9673.5	1.22344011
9673.75	1.12356745
9674.0	0.84891763
9674.25	1.09859929
9674.5	1.32331278
9674.75	1.32337886
9675.0	1.14859297
9675.25	1.32331278
9675.5	0.873885796
9675.75	1.34831461
9676.0	1.37324911
9676.25	1.04866295
9676.5	1.27340824
9676.75	1.52313416
9677.0	1.04866295
9677.25	1.07363112
9677.5	1.17353308
9677.75	0.873907615
9678.0	1.22344011
9678.25	1.27340824
9678.5	1.24843945
9678.75	1.54802627
9679.0	0.923822127
9679.25	1.02372035
9679.5	1.52309613
9679.75	1.09859929
9680.0	1.29837703
9680.25	1.27337645
9680.5	1.19847195
9680.75	1.14856429
9681.0	0.823949464
9681.25	0.973758458
9681.5	1.3732834
9681.75	1.22340957
9682.0	1.19850187
9682.25	0.873907615
9682.5	0.724058724
9682.75	1.24837711
9683.0	0.948790292
9683.25	1.09859929
9683.5	0.84891763
9683.75	0.998726624
9684.0	0.973734146
9684.25	0.998726624
9684.5	0.84891763
9684.75	0.973758458
9685.0	0.873907615
9685.25	0.84891763
9685.5	0.898831519
9685.75	1.07363112
9686.0	0.774013133
9686.25	0.799001248
9686.5	0.923822127
9686.75	0.674157303
9687.0	0.84891763
9687.25	0.948790292
9687.5	0.774032459
9687.75	1.07363112
9688.0	0.799021199
9688.25	1.02372035
9688.5	0.873907615
9688.75	0.923822127
9689.0	0.774032459
9689.25	1.27340824
9689.5	0.998726624
9689.75	1.12356745
9690.0	0.973782772
9690.25	0.749044968
9690.5	0.973758458
9690.75	0.948790292
9691.0	0.84891763
9691.25	0.799001248
9691.5	0.823970037
9691.75	1.04866295
9692.0	0.599235974
9692.25	0.948813983
9692.5	0.74906367
9692.75	1.19847195
9693.0	0.848896435
9693.25	1.02366923
9693.5	0.998726624
9693.75	0.873929436
9694.0	1.17350378
9694.25	0.649172305
9694.5	0.973758458
9694.75	0.749044968
9695.0	1.17350378
9695.25	0.973782772
9695.5	0.873885796
9695.75	0.749044968
9696.0	0.699108636
9696.25	0.923822127
9696.5	0.574267809
9696.75	0.923845194
9697.0	1.17344519
9697.25	0.798981299
9697.5	0.898876404
9697.75	0.724094881
9698.0	0.774013133
9698.25	0.62420414
9698.5	0.798981299
9698.75	0.84891763
9699.0	0.649188514
9699.25	1.04868914
9699.5	0.724094881
9699.75	0.624219725
9700.0	0.823970037
